# Spectral Data
# f in Hz A in dBV
0.000000 -14.067822
1.464844 -13.279564
2.929687 -12.644539
4.394531 -12.131426
5.859375 -11.721038
7.324219 -11.426091
8.789062 -11.225725
10.253906 -11.135124
11.718750 -11.147262
13.183594 -11.190699
14.648437 -11.268103
16.113281 -11.374577
17.578125 -11.515376
19.042969 -11.624204
20.507812 -11.749459
21.972656 -11.853157
23.437500 -11.945100
24.902344 -11.996269
26.367187 -11.996321
27.832031 -11.993747
29.296875 -11.992069
30.761719 -12.039283
32.226562 -12.143338
33.691406 -12.278337
35.156250 -12.447493
36.621094 -12.600780
38.085937 -12.706525
39.550781 -12.814402
41.015625 -12.867695
42.480469 -12.899357
43.945312 -12.931596
45.410156 -12.879945
46.875000 -12.803645
48.339844 -12.746248
49.804687 -12.679721
51.269531 -12.580194
52.734375 -12.475657
54.199219 -12.345532
55.664062 -12.282585
57.128906 -12.335918
58.593750 -12.469796
60.058594 -12.573171
61.523437 -12.693917
62.988281 -12.721237
64.453125 -12.708466
65.917969 -12.716491
67.382812 -12.672690
68.847656 -12.601528
70.312500 -12.533082
71.777344 -12.460577
73.242187 -12.384211
74.707031 -12.349400
76.171875 -12.318035
77.636719 -12.294604
79.101562 -12.286617
80.566406 -12.321241
82.031250 -12.376392
83.496094 -12.448859
84.960937 -12.550953
86.425781 -12.616554
87.890625 -12.677613
89.355469 -12.759690
90.820312 -12.805511
92.285156 -12.832727
93.750000 -12.852275
95.214844 -12.905302
96.679687 -12.937213
98.144531 -12.951598
99.609375 -12.956549
101.074219 -12.947391
102.539062 -12.960579
104.003906 -12.972281
105.468750 -12.978315
106.933594 -12.997172
108.398437 -13.020708
109.863281 -13.036242
111.328125 -13.041957
112.792969 -13.099762
114.257812 -13.141466
115.722656 -13.183290
117.187500 -13.179672
118.652344 -13.162968
120.117187 -13.100526
121.582031 -13.026926
123.046875 -12.997159
124.511719 -12.986888
125.976562 -12.922256
127.441406 -12.843638
128.906250 -12.748204
130.371094 -12.643626
131.835937 -12.577804
133.300781 -12.480456
134.765625 -12.388897
136.230469 -12.269683
137.695312 -12.108016
139.160156 -11.941049
140.625000 -11.794825
142.089844 -11.711381
143.554687 -11.708216
145.019531 -11.771929
146.484375 -11.915877
147.949219 -12.104113
149.414062 -12.254687
150.878906 -12.387954
152.343750 -12.522530
153.808594 -12.603888
155.273437 -12.665297
156.738281 -12.734417
158.203125 -12.826956
159.667969 -12.963525
161.132812 -13.042999
162.597656 -13.126530
164.062500 -13.187480
165.527344 -13.260751
166.992187 -13.340688
168.457031 -13.375867
169.921875 -13.418502
171.386719 -13.470151
172.851562 -13.490053
174.316406 -13.529842
175.781250 -13.534464
177.246094 -13.538168
178.710937 -13.556572
180.175781 -13.581901
181.640625 -13.597418
183.105469 -13.547190
184.570312 -13.555892
186.035156 -13.572936
187.500000 -13.581549
188.964844 -13.576579
190.429687 -13.542221
191.894531 -13.572384
193.359375 -13.601267
194.824219 -13.574427
196.289062 -13.567641
197.753906 -13.538030
199.218750 -13.478964
200.683594 -13.458149
202.148437 -13.469746
203.613281 -13.455603
205.078125 -13.402011
206.542969 -13.372582
208.007812 -13.371591
209.472656 -13.346372
210.937500 -13.311775
212.402344 -13.315690
213.867187 -13.272729
215.332031 -13.229643
216.796875 -13.180385
218.261719 -13.160208
219.726562 -13.150221
221.191406 -13.126188
222.656250 -13.135072
224.121094 -13.097888
225.585937 -13.048365
227.050781 -13.018804
228.515625 -12.997911
229.980469 -12.963095
231.445312 -12.942275
232.910156 -12.940470
234.375000 -12.951180
235.839844 -12.939343
237.304687 -12.870330
238.769531 -12.859714
240.234375 -12.830730
241.699219 -12.790040
243.164062 -12.782460
244.628906 -12.734817
246.093750 -12.707226
247.558594 -12.670262
249.023437 -12.643418
250.488281 -12.591074
251.953125 -12.543591
253.417969 -12.483935
254.882812 -12.471744
256.347656 -12.470685
257.812500 -12.467790
259.277344 -12.444828
260.742187 -12.432117
262.207031 -12.405354
263.671875 -12.364829
265.136719 -12.315198
266.601562 -12.272068
268.066406 -12.224601
269.531250 -12.178821
270.996094 -12.118420
272.460937 -12.078212
273.925781 -12.029608
275.390625 -11.970981
276.855469 -11.906799
278.320312 -11.842466
279.785156 -11.782567
281.250000 -11.756800
282.714844 -11.743747
284.179687 -11.768084
285.644531 -11.817954
287.109375 -11.945965
288.574219 -12.068538
290.039062 -12.209460
291.503906 -12.351693
292.968750 -12.506636
294.433594 -12.698414
295.898437 -12.875576
297.363281 -12.991386
298.828125 -13.103427
300.292969 -13.211968
301.757812 -13.305386
303.222656 -13.397523
304.687500 -13.512606
306.152344 -13.595349
307.617187 -13.657790
309.082031 -13.747393
310.546875 -13.828789
312.011719 -13.884169
313.476562 -13.946763
314.941406 -14.031856
316.406250 -14.105451
317.871094 -14.148585
319.335937 -14.198919
320.800781 -14.264006
322.265625 -14.335361
323.730469 -14.411113
325.195312 -14.407078
326.660156 -14.409061
328.125000 -14.440638
329.589844 -14.502999
331.054687 -14.547299
332.519531 -14.588627
333.984375 -14.677176
335.449219 -14.737485
336.914062 -14.767037
338.378906 -14.772109
339.843750 -14.762687
341.308594 -14.798371
342.773437 -14.839319
344.238281 -14.849768
345.703125 -14.879053
347.167969 -14.857178
348.632812 -14.883344
350.097656 -14.869937
351.562500 -14.808040
353.027344 -14.722796
354.492187 -14.587695
355.957031 -14.545013
357.421875 -14.594050
358.886719 -14.722840
360.351562 -14.848143
361.816406 -14.937971
363.281250 -14.992315
364.746094 -14.964892
366.210937 -14.984132
367.675781 -14.979347
369.140625 -14.942371
370.605469 -14.927236
372.070312 -14.896058
373.535156 -14.858911
375.000000 -14.818087
376.464844 -14.787880
377.929687 -14.816056
379.394531 -14.823482
380.859375 -14.778164
382.324219 -14.727102
383.789062 -14.680039
385.253906 -14.661567
386.718750 -14.618747
388.183594 -14.588863
389.648437 -14.545950
391.113281 -14.517321
392.578125 -14.469843
394.042969 -14.436206
395.507812 -14.395458
396.972656 -14.340077
398.437500 -14.272764
399.902344 -14.185261
401.367187 -14.098642
402.832031 -14.032159
404.296875 -13.943411
405.761719 -13.863742
407.226562 -13.761076
408.691406 -13.670310
410.156250 -13.535589
411.621094 -13.408093
413.085937 -13.263989
414.550781 -13.142003
416.015625 -13.014333
417.480469 -12.902884
418.945312 -12.864910
420.410156 -12.872754
421.875000 -12.882927
423.339844 -12.911610
424.804687 -13.013715
426.269531 -13.154682
427.734375 -13.264431
429.199219 -13.354050
430.664062 -13.419989
432.128906 -13.510397
433.593750 -13.559011
435.058594 -13.639254
436.523437 -13.723179
437.988281 -13.752421
439.453125 -13.750327
440.917969 -13.744630
442.382812 -13.755707
443.847656 -13.792873
445.312500 -13.884006
446.777344 -13.863819
448.242187 -13.879451
449.707031 -13.844117
451.171875 -13.842464
452.636719 -13.836678
454.101562 -13.818984
455.566406 -13.774279
457.031250 -13.749540
458.496094 -13.761519
459.960937 -13.783860
461.425781 -13.827004
462.890625 -13.843794
464.355469 -13.883083
465.820312 -13.943766
467.285156 -13.956279
468.750000 -13.973251
470.214844 -13.936313
471.679687 -13.897393
473.144531 -13.864741
474.609375 -13.896868
476.074219 -13.941355
477.539062 -13.961640
479.003906 -13.969621
480.468750 -13.942954
481.933594 -13.899586
483.398437 -13.890620
484.863281 -13.889106
486.328125 -13.907621
487.792969 -13.939856
489.257812 -13.996215
490.722656 -14.036549
492.187500 -14.029590
493.652344 -14.048000
495.117187 -14.081117
496.582031 -14.119049
498.046875 -14.138664
499.511719 -14.169955
500.976562 -14.195664
502.441406 -14.229487
503.906250 -14.229886
505.371094 -14.211293
506.835937 -14.231099
508.300781 -14.262981
509.765625 -14.304498
511.230469 -14.329621
512.695312 -14.359258
514.160156 -14.379212
515.625000 -14.367957
517.089844 -14.369742
518.554687 -14.392004
520.019531 -14.412210
521.484375 -14.440921
522.949219 -14.448926
524.414062 -14.459586
525.878906 -14.470948
527.343750 -14.482489
528.808594 -14.504351
530.273437 -14.497049
531.738281 -14.460068
533.203125 -14.412332
534.667969 -14.385850
536.132812 -14.403178
537.597656 -14.404397
539.062500 -14.417481
540.527344 -14.406200
541.992187 -14.345199
543.457031 -14.304533
544.921875 -14.233244
546.386719 -14.177634
547.851562 -14.095795
549.316406 -14.022762
550.781250 -13.957235
552.246094 -13.862533
553.710937 -13.757802
555.175781 -13.691198
556.640625 -13.607931
558.105469 -13.549178
559.570312 -13.525015
561.035156 -13.557162
562.500000 -13.607565
563.964844 -13.706479
565.429687 -13.820729
566.894531 -13.938966
568.359375 -14.109986
569.824219 -14.262042
571.289062 -14.402020
572.753906 -14.456031
574.218750 -14.550266
575.683594 -14.642307
577.148437 -14.707949
578.613281 -14.763978
580.078125 -14.797554
581.542969 -14.860299
583.007812 -14.929559
584.472656 -14.997491
585.937500 -15.037694
587.402344 -15.069026
588.867187 -15.110970
590.332031 -15.165828
591.796875 -15.240533
593.261719 -15.307057
594.726562 -15.348862
596.191406 -15.384839
597.656250 -15.446311
599.121094 -15.518247
600.585937 -15.532283
602.050781 -15.506865
603.515625 -15.503731
604.980469 -15.508038
606.445312 -15.534774
607.910156 -15.546301
609.375000 -15.564173
610.839844 -15.576455
612.304687 -15.569041
613.769531 -15.579160
615.234375 -15.553018
616.699219 -15.573044
618.164062 -15.570934
619.628906 -15.601685
621.093750 -15.603263
622.558594 -15.605926
624.023437 -15.593291
625.488281 -15.610167
626.953125 -15.599591
628.417969 -15.593374
629.882812 -15.592065
631.347656 -15.591871
632.812500 -15.569560
634.277344 -15.559706
635.742187 -15.542381
637.207031 -15.532228
638.671875 -15.514054
640.136719 -15.443786
641.601562 -15.395530
643.066406 -15.387838
644.531250 -15.376248
645.996094 -15.370612
647.460937 -15.369522
648.925781 -15.374673
650.390625 -15.292843
651.855469 -15.174276
653.320312 -14.999118
654.785156 -14.820761
656.250000 -14.745918
657.714844 -14.785999
659.179687 -14.887376
660.644531 -14.960958
662.109375 -14.991187
663.574219 -14.934804
665.039062 -14.890015
666.503906 -14.861391
667.968750 -14.837300
669.433594 -14.777779
670.898437 -14.712898
672.363281 -14.678362
673.828125 -14.638454
675.292969 -14.590422
676.757812 -14.541002
678.222656 -14.478295
679.687500 -14.412554
681.152344 -14.272281
682.617187 -14.135284
684.082031 -14.034068
685.546875 -13.960041
687.011719 -13.876243
688.476562 -13.772155
689.941406 -13.666476
691.406250 -13.593281
692.871094 -13.503967
694.335937 -13.408227
695.800781 -13.370622
697.265625 -13.353015
698.730469 -13.364103
700.195312 -13.388690
701.660156 -13.432215
703.125000 -13.515746
704.589844 -13.588257
706.054687 -13.638010
707.519531 -13.679247
708.984375 -13.746753
710.449219 -13.855251
711.914062 -13.921336
713.378906 -13.965885
714.843750 -13.953269
716.308594 -14.021736
717.773437 -14.082715
719.238281 -14.118956
720.703125 -14.160516
722.167969 -14.213296
723.632812 -14.233227
725.097656 -14.287684
726.562500 -14.346671
728.027344 -14.438006
729.492187 -14.525620
730.957031 -14.580018
732.421875 -14.605969
733.886719 -14.664816
735.351562 -14.715723
736.816406 -14.781544
738.281250 -14.805060
739.746094 -14.852988
741.210937 -14.890683
742.675781 -14.949302
744.140625 -14.983804
745.605469 -15.008080
747.070312 -15.069728
748.535156 -15.067959
750.000000 -15.120314
751.464844 -15.133561
752.929687 -14.989908
754.394531 -14.758368
755.859375 -14.633327
757.324219 -14.651330
758.789062 -14.827853
760.253906 -15.122556
761.718750 -15.376657
763.183594 -15.481720
764.648437 -15.499110
766.113281 -15.507402
767.578125 -15.538855
769.042969 -15.562337
770.507812 -15.578511
771.972656 -15.606597
773.437500 -15.604144
774.902344 -15.631531
776.367187 -15.663367
777.832031 -15.694108
779.296875 -15.724193
780.761719 -15.779925
782.226562 -15.818595
783.691406 -15.871923
785.156250 -15.867487
786.621094 -15.865945
788.085937 -15.853088
789.550781 -15.822545
791.015625 -15.801950
792.480469 -15.789661
793.945312 -15.763289
795.410156 -15.773015
796.875000 -15.765834
798.339844 -15.770886
799.804687 -15.804505
801.269531 -15.801056
802.734375 -15.767006
804.199219 -15.744370
805.664062 -15.759626
807.128906 -15.730573
808.593750 -15.718206
810.058594 -15.717611
811.523437 -15.665605
812.988281 -15.614504
814.453125 -15.571896
815.917969 -15.516163
817.382812 -15.452993
818.847656 -15.389408
820.312500 -15.357914
821.777344 -15.302789
823.242187 -15.216965
824.707031 -15.177738
826.171875 -15.096363
827.636719 -15.042918
829.101562 -14.970274
830.566406 -14.899090
832.031250 -14.796316
833.496094 -14.700561
834.960937 -14.634589
836.425781 -14.604693
837.890625 -14.608658
839.355469 -14.647073
840.820312 -14.727889
842.285156 -14.805809
843.750000 -14.856848
845.214844 -14.941946
846.679687 -15.022461
848.144531 -15.094184
849.609375 -15.192958
851.074219 -15.254764
852.539062 -15.240139
854.003906 -15.144873
855.468750 -15.070829
856.933594 -15.069210
858.398437 -15.179455
859.863281 -15.394872
861.328125 -15.590408
862.792969 -15.719629
864.257812 -15.786584
865.722656 -15.836582
867.187500 -15.875680
868.652344 -15.901422
870.117187 -15.895595
871.582031 -15.887434
873.046875 -15.872953
874.511719 -15.878161
875.976562 -15.871367
877.441406 -15.861469
878.906250 -15.834605
880.371094 -15.843807
881.835937 -15.848809
883.300781 -15.865001
884.765625 -15.902757
886.230469 -15.921205
887.695312 -15.929410
889.160156 -15.957653
890.625000 -16.000488
892.089844 -16.018288
893.554687 -15.988807
895.019531 -15.947789
896.484375 -15.927242
897.949219 -15.874908
899.414062 -15.882648
900.878906 -15.904588
902.343750 -15.880159
903.808594 -15.829604
905.273437 -15.776257
906.738281 -15.758819
908.203125 -15.771531
909.667969 -15.795089
911.132812 -15.786087
912.597656 -15.756048
914.062500 -15.699435
915.527344 -15.649292
916.992187 -15.635352
918.457031 -15.631672
919.921875 -15.609613
921.386719 -15.601983
922.851562 -15.575895
924.316406 -15.551880
925.781250 -15.493144
927.246094 -15.469411
928.710937 -15.428571
930.175781 -15.399316
931.640625 -15.353186
933.105469 -15.321403
934.570312 -15.273661
936.035156 -15.196692
937.500000 -15.161205
938.964844 -15.153728
940.429687 -15.126580
941.894531 -15.113677
943.359375 -15.085599
944.824219 -15.045009
946.289062 -14.988675
947.753906 -14.949687
949.218750 -14.893944
950.683594 -14.843435
952.148437 -14.767061
953.613281 -14.699916
955.078125 -14.640610
956.542969 -14.601296
958.007812 -14.583182
959.472656 -14.532902
960.937500 -14.486634
962.402344 -14.454832
963.867187 -14.422651
965.332031 -14.372308
966.796875 -14.345687
968.261719 -14.310612
969.726562 -14.247195
971.191406 -14.230839
972.656250 -14.166379
974.121094 -14.127384
975.585937 -14.102328
977.050781 -14.091602
978.515625 -14.123364
979.980469 -14.171426
981.445312 -14.217740
982.910156 -14.259100
984.375000 -14.308363
985.839844 -14.402598
987.304687 -14.502708
988.769531 -14.575849
990.234375 -14.642174
991.699219 -14.760797
993.164062 -14.875501
994.628906 -14.977109
996.093750 -15.062416
997.558594 -15.154099