# Spectral Data
# f in Hz	A in dBV
0.000000	-13.904904
1.464844	-13.169521
2.929687	-12.600642
4.394531	-12.055813
5.859375	-11.581948
7.324219	-11.263619
8.789062	-11.083060
10.253906	-11.020023
11.718750	-11.037937
13.183594	-11.121978
14.648437	-11.273395
16.113281	-11.361768
17.578125	-11.454561
19.042969	-11.577816
20.507812	-11.657633
21.972656	-11.823273
23.437500	-11.966048
24.902344	-11.893429
26.367187	-11.887247
27.832031	-11.881115
29.296875	-11.842291
30.761719	-11.829130
32.226562	-11.909861
33.691406	-12.088780
35.156250	-12.286752
36.621094	-12.485820
38.085937	-12.636742
39.550781	-12.664127
41.015625	-12.746219
42.480469	-12.841749
43.945312	-12.880143
45.410156	-12.868937
46.875000	-12.815751
48.339844	-12.659336
49.804687	-12.546262
51.269531	-12.459333
52.734375	-12.421147
54.199219	-12.341616
55.664062	-12.271075
57.128906	-12.281917
58.593750	-12.411512
60.058594	-12.567409
61.523437	-12.580096
62.988281	-12.552867
64.453125	-12.587836
65.917969	-12.626599
67.382812	-12.633155
68.847656	-12.662151
70.312500	-12.638087
71.777344	-12.568907
73.242187	-12.493556
74.707031	-12.448161
76.171875	-12.483466
77.636719	-12.421207
79.101562	-12.419780
80.566406	-12.424040
82.031250	-12.421208
83.496094	-12.451807
84.960937	-12.548269
86.425781	-12.647350
87.890625	-12.730662
89.355469	-12.824124
90.820312	-12.931607
92.285156	-13.005186
93.750000	-12.912022
95.214844	-12.850252
96.679687	-12.781339
98.144531	-12.786551
99.609375	-12.853380
101.074219	-12.957219
102.539062	-13.077939
104.003906	-13.111190
105.468750	-13.113424
106.933594	-13.007780
108.398437	-13.021805
109.863281	-13.053731
111.328125	-13.173037
112.792969	-13.286431
114.257812	-13.274570
115.722656	-13.221969
117.187500	-13.236425
118.652344	-13.309201
120.117187	-13.253361
121.582031	-13.205024
123.046875	-13.083475
124.511719	-12.980542
125.976562	-12.910230
127.441406	-12.849318
128.906250	-12.734577
130.371094	-12.625356
131.835937	-12.524423
133.300781	-12.552064
134.765625	-12.463076
136.230469	-12.434271
137.695312	-12.370119
139.160156	-12.254588
140.625000	-12.076626
142.089844	-11.934878
143.554687	-11.755595
145.019531	-11.659439
146.484375	-11.625810
147.949219	-11.636002
149.414062	-11.794745
150.878906	-11.933008
152.343750	-12.066099
153.808594	-12.251609
155.273437	-12.458943
156.738281	-12.483746
158.203125	-12.568028
159.667969	-12.706144
161.132812	-12.893959
162.597656	-13.074032
164.062500	-13.121111
165.527344	-13.217135
166.992187	-13.196149
168.457031	-13.250810
169.921875	-13.251318
171.386719	-13.337879
172.851562	-13.439434
174.316406	-13.418440
175.781250	-13.397031
177.246094	-13.389359
178.710937	-13.448602
180.175781	-13.436551
181.640625	-13.547712
183.105469	-13.616942
184.570312	-13.568167
186.035156	-13.577098
187.500000	-13.511832
188.964844	-13.491570
190.429687	-13.472631
191.894531	-13.491741
193.359375	-13.474037
194.824219	-13.403835
196.289062	-13.413304
197.753906	-13.486869
199.218750	-13.472873
200.683594	-13.525566
202.148437	-13.555800
203.613281	-13.490249
205.078125	-13.501541
206.542969	-13.461355
208.007812	-13.448070
209.472656	-13.442263
210.937500	-13.339531
212.402344	-13.322189
213.867187	-13.335381
215.332031	-13.284963
216.796875	-13.274491
218.261719	-13.370449
219.726562	-13.551844
221.191406	-13.449686
222.656250	-13.285632
224.121094	-13.152243
225.585937	-13.114664
227.050781	-13.083056
228.515625	-13.096591
229.980469	-13.076824
231.445312	-12.970513
232.910156	-12.897966
234.375000	-12.861604
235.839844	-12.926147
237.304687	-12.846774
238.769531	-12.851245
240.234375	-12.884429
241.699219	-12.948409
243.164062	-12.836808
244.628906	-12.830086
246.093750	-12.735266
247.558594	-12.683974
249.023437	-12.722326
250.488281	-12.712044
251.953125	-12.645343
253.417969	-12.636098
254.882812	-12.593551
256.347656	-12.524604
257.812500	-12.524289
259.277344	-12.577581
260.742187	-12.600801
262.207031	-12.625165
263.671875	-12.598772
265.136719	-12.630100
266.601562	-12.525083
268.066406	-12.485516
269.531250	-12.527289
270.996094	-12.583560
272.460937	-12.480161
273.925781	-12.425951
275.390625	-12.331172
276.855469	-12.273755
278.320312	-12.173958
279.785156	-12.117549
281.250000	-12.105390
282.714844	-12.096238
284.179687	-12.079797
285.644531	-11.992342
287.109375	-11.936840
288.574219	-11.910181
290.039062	-11.933257
291.503906	-12.028728
292.968750	-12.118813
294.433594	-12.285926
295.898437	-12.447707
297.363281	-12.504163
298.828125	-12.614546
300.292969	-12.787273
301.757812	-12.947110
303.222656	-13.132320
304.687500	-13.358714
306.152344	-13.455431
307.617187	-13.503751
309.082031	-13.640092
310.546875	-13.815583
312.011719	-13.928744
313.476562	-13.983959
314.941406	-14.047895
316.406250	-14.080660
317.871094	-14.093051
319.335937	-14.133274
320.800781	-14.204864
322.265625	-14.302169
323.730469	-14.327128
325.195312	-14.361040
326.660156	-14.382428
328.125000	-14.441465
329.589844	-14.522607
331.054687	-14.591852
332.519531	-14.589745
333.984375	-14.574421
335.449219	-14.631750
336.914062	-14.709506
338.378906	-14.681854
339.843750	-14.691014
341.308594	-14.725080
342.773437	-14.814716
344.238281	-14.855448
345.703125	-14.926479
347.167969	-14.830948
348.632812	-14.792800
350.097656	-14.847140
351.562500	-14.810972
353.027344	-14.795074
354.492187	-14.777948
355.957031	-14.741521
357.421875	-14.736174
358.886719	-14.761862
360.351562	-14.866782
361.816406	-14.902597
363.281250	-14.827020
364.746094	-14.774315
366.210937	-14.769552
367.675781	-14.834042
369.140625	-14.863285
370.605469	-14.787908
372.070312	-14.783498
373.535156	-14.758273
375.000000	-14.769161
376.464844	-14.876330
377.929687	-14.947133
379.394531	-15.106033
380.859375	-15.017010
382.324219	-15.048133
383.789062	-14.956780
385.253906	-14.964301
386.718750	-14.750249
388.183594	-14.638832
389.648437	-14.574509
391.113281	-14.506065
392.578125	-14.457116
394.042969	-14.479164
395.507812	-14.516599
396.972656	-14.505253
398.437500	-14.531878
399.902344	-14.450686
401.367187	-14.424026
402.832031	-14.396698
404.296875	-14.423854
405.761719	-14.308945
407.226562	-14.240587
408.691406	-14.212864
410.156250	-14.140654
411.621094	-14.011769
413.085937	-13.807578
414.550781	-13.717338
416.015625	-13.660674
417.480469	-13.649845
418.945312	-13.528067
420.410156	-13.444078
421.875000	-13.332291
423.339844	-13.183030
424.804687	-13.029197
426.269531	-12.872464
427.734375	-12.780580
429.199219	-12.757640
430.664062	-12.782895
432.128906	-12.899774
433.593750	-13.007309
435.058594	-13.076702
436.523437	-13.113523
437.988281	-13.133775
439.453125	-13.175843
440.917969	-13.221922
442.382812	-13.295810
443.847656	-13.401256
445.312500	-13.563417
446.777344	-13.650843
448.242187	-13.614210
449.707031	-13.650759
451.171875	-13.570331
452.636719	-13.504164
454.101562	-13.490541
455.566406	-13.564241
457.031250	-13.569145
458.496094	-13.572759
459.960937	-13.602608
461.425781	-13.631905
462.890625	-13.666189
464.355469	-13.657266
465.820312	-13.706815
467.285156	-13.798060
468.750000	-13.810698
470.214844	-13.712090
471.679687	-13.696570
473.144531	-13.693786
474.609375	-13.727955
476.074219	-13.739766
477.539062	-13.798748
479.003906	-13.859676
480.468750	-13.808710
481.933594	-13.844254
483.398437	-13.905788
484.863281	-13.957706
486.328125	-14.012887
487.792969	-13.998463
489.257812	-13.976236
490.722656	-14.023200
492.187500	-13.961642
493.652344	-13.985099
495.117187	-14.037178
496.582031	-14.087559
498.046875	-14.112004
499.511719	-14.074676
500.976562	-14.039502
502.441406	-14.038015
503.906250	-14.126536
505.371094	-14.203797
506.835937	-14.220480
508.300781	-14.343587
509.765625	-14.460202
511.230469	-14.527544
512.695312	-14.540484
514.160156	-14.544498
515.625000	-14.539885
517.089844	-14.564029
518.554687	-14.585585
520.019531	-14.666471
521.484375	-14.726211
522.949219	-14.620644
524.414062	-14.515733
525.878906	-14.533079
527.343750	-14.584151
528.808594	-14.622767
530.273437	-14.632396
531.738281	-14.630939
533.203125	-14.567964
534.667969	-14.545272
536.132812	-14.586247
537.597656	-14.670627
539.062500	-14.877795
540.527344	-14.803642
541.992187	-14.656254
543.457031	-14.594505
544.921875	-14.617805
546.386719	-14.537957
547.851562	-14.480360
549.316406	-14.428909
550.781250	-14.386187
552.246094	-14.430542
553.710937	-14.411778
555.175781	-14.398562
556.640625	-14.410141
558.105469	-14.395344
559.570312	-14.356962
561.035156	-14.254579
562.500000	-14.123240
563.964844	-14.054411
565.429687	-13.902144
566.894531	-13.777063
568.359375	-13.738894
569.824219	-13.743750
571.289062	-13.707204
572.753906	-13.676060
574.218750	-13.721531
575.683594	-13.819539
577.148437	-14.046664
578.613281	-14.223101
580.078125	-14.375328
581.542969	-14.290005
583.007812	-14.340088
584.472656	-14.500483
585.937500	-14.590629
587.402344	-14.598969
588.867187	-14.661387
590.332031	-14.787746
591.796875	-14.850607
593.261719	-14.878906
594.726562	-14.944689
596.191406	-15.017981
597.656250	-15.047586
599.121094	-15.108360
600.585937	-15.231501
602.050781	-15.311557
603.515625	-15.388503
604.980469	-15.377194
606.445312	-15.291999
607.910156	-15.285575
609.375000	-15.311582
610.839844	-15.307737
612.304687	-15.363718
613.769531	-15.405952
615.234375	-15.447107
616.699219	-15.458443
618.164062	-15.484537
619.628906	-15.518304
621.093750	-15.619708
622.558594	-15.722368
624.023437	-15.716595
625.488281	-15.665993
626.953125	-15.651191
628.417969	-15.688566
629.882812	-15.546729
631.347656	-15.412104
632.812500	-15.352327
634.277344	-15.379047
635.742187	-15.430854
637.207031	-15.494000
638.671875	-15.532679
640.136719	-15.489777
641.601562	-15.499335
643.066406	-15.516891
644.531250	-15.554730
645.996094	-15.593533
647.460937	-15.530895
648.925781	-15.553331
650.390625	-15.576147
651.855469	-15.387183
653.320312	-15.217394
654.785156	-15.080062
656.250000	-15.036918
657.714844	-15.121125
659.179687	-15.185263
660.644531	-15.203772
662.109375	-15.190402
663.574219	-15.222090
665.039062	-15.157434
666.503906	-15.037312
667.968750	-15.073968
669.433594	-15.095461
670.898437	-15.086816
672.363281	-15.206016
673.828125	-15.167473
675.292969	-15.118147
676.757812	-15.011375
678.222656	-14.924545
679.687500	-14.812818
681.152344	-14.752055
682.617187	-14.688592
684.082031	-14.647196
685.546875	-14.521632
687.011719	-14.426908
688.476562	-14.339273
689.941406	-14.334768
691.406250	-14.249615
692.871094	-14.127859
694.335937	-14.075080
695.800781	-13.993900
697.265625	-13.968840
698.730469	-13.998368
700.195312	-14.040722
701.660156	-14.030042
703.125000	-13.971742
704.589844	-13.880765
706.054687	-13.767345
707.519531	-13.699392
708.984375	-13.585927
710.449219	-13.423444
711.914062	-13.269789
713.378906	-13.232732
714.843750	-13.265390
716.308594	-13.390149
717.773437	-13.429053
719.238281	-13.471089
720.703125	-13.448254
722.167969	-13.530237
723.632812	-13.577904
725.097656	-13.695709
726.562500	-13.821821
728.027344	-13.932689
729.492187	-14.027516
730.957031	-14.089472
732.421875	-14.202214
733.886719	-14.221486
735.351562	-14.223173
736.816406	-14.308133
738.281250	-14.352479
739.746094	-14.358813
741.210937	-14.415660
742.675781	-14.511515
744.140625	-14.562394
745.605469	-14.565298
747.070312	-14.546982
748.535156	-14.558081
750.000000	-14.628523
751.464844	-14.655987
752.929687	-14.634740
754.394531	-14.617201
755.859375	-14.639439
757.324219	-14.698175
758.789062	-14.835503
760.253906	-15.013947
761.718750	-15.082327
763.183594	-15.135132
764.648437	-15.190423
766.113281	-15.316198
767.578125	-15.410933
769.042969	-15.436265
770.507812	-15.422406
771.972656	-15.501595
773.437500	-15.527801
774.902344	-15.434987
776.367187	-15.425925
777.832031	-15.450705
779.296875	-15.503853
780.761719	-15.596912
782.226562	-15.669428
783.691406	-15.798225
785.156250	-15.808002
786.621094	-15.768507
788.085937	-15.804526
789.550781	-15.862458
791.015625	-15.841372
792.480469	-15.776116
793.945312	-15.794238
795.410156	-15.868936
796.875000	-15.928837
798.339844	-15.882303
799.804687	-15.828496
801.269531	-15.797546
802.734375	-15.865873
804.199219	-15.968838
805.664062	-16.000132
807.128906	-15.936779
808.593750	-16.022066
810.058594	-16.064176
811.523437	-16.055599
812.988281	-16.046334
814.453125	-16.090450
815.917969	-16.024043
817.382812	-15.928719
818.847656	-15.970055
820.312500	-15.984328
821.777344	-15.993947
823.242187	-15.899985
824.707031	-15.803125
826.171875	-15.708848
827.636719	-15.696643
829.101562	-15.674678
830.566406	-15.632137
832.031250	-15.642536
833.496094	-15.588665
834.960937	-15.518320
836.425781	-15.476298
837.890625	-15.554830
839.355469	-15.616081
840.820312	-15.472805
842.285156	-15.320711
843.750000	-15.160492
845.214844	-15.095655
846.679687	-14.972609
848.144531	-14.882527
849.609375	-14.752424
851.074219	-14.708232
852.539062	-14.625633
854.003906	-14.597192
855.468750	-14.621198
856.933594	-14.604911
858.398437	-14.603700
859.863281	-14.632199
861.328125	-14.714569
862.792969	-14.786800
864.257812	-14.901183
865.722656	-15.013508
867.187500	-15.086075
868.652344	-15.155834
870.117187	-15.312933
871.582031	-15.513307
873.046875	-15.404699
874.511719	-15.390122
875.976562	-15.498395
877.441406	-15.557863
878.906250	-15.610007
880.371094	-15.597819
881.835937	-15.498827
883.300781	-15.480599
884.765625	-15.604526
886.230469	-15.651370
887.695312	-15.784206
889.160156	-15.726564
890.625000	-15.665964
892.089844	-15.758022
893.554687	-15.879407
895.019531	-15.778751
896.484375	-15.724729
897.949219	-15.700780
899.414062	-15.820180
900.878906	-15.898030
902.343750	-15.794193
903.808594	-15.785693
905.273437	-15.843070
906.738281	-15.880754
908.203125	-15.875171
909.667969	-15.868278
911.132812	-15.851138
912.597656	-15.821183
914.062500	-15.720289
915.527344	-15.667402
916.992187	-15.672395
918.457031	-15.547474
919.921875	-15.591538
921.386719	-15.718693
922.851562	-15.728951
924.316406	-15.680157
925.781250	-15.588530
927.246094	-15.549049
928.710937	-15.535477
930.175781	-15.601664
931.640625	-15.535669
933.105469	-15.509576
934.570312	-15.562589
936.035156	-15.545065
937.500000	-15.498167
938.964844	-15.487024
940.429687	-15.436730
941.894531	-15.468520
943.359375	-15.493422
944.824219	-15.470288
946.289062	-15.406999
947.753906	-15.388441
949.218750	-15.389914
950.683594	-15.325881
952.148437	-15.273523
953.613281	-15.111269
955.078125	-15.001831
956.542969	-14.895415
958.007812	-14.921204
959.472656	-14.874894
960.937500	-14.922250
962.402344	-15.007227
963.867187	-14.999511
965.332031	-15.001052
966.796875	-15.081105
968.261719	-15.061825
969.726562	-14.983282
971.191406	-14.907783
972.656250	-14.883578
974.121094	-14.925419
975.585937	-14.918586
977.050781	-14.813601
978.515625	-14.714402
979.980469	-14.754625
981.445312	-14.676558
982.910156	-14.668042
984.375000	-14.614490
985.839844	-14.682741
987.304687	-14.662678
988.769531	-14.676014
990.234375	-14.581168
991.699219	-14.545675
993.164062	-14.563908
994.628906	-14.558579
996.093750	-14.440340
997.558594	-14.408185

